timestamps,stimulus,TP9,AF7,AF8,TP10,Right AUX
1758510882.847125,STAR,-44.921875,-27.83203125,-8.7890625,-21.97265625,-314.94140625
1758510882.8510313,STAR,-50.78125,-34.66796875,-12.20703125,-33.69140625,-303.22265625
1758510882.8549376,STAR,-24.90234375,-40.0390625,-18.5546875,-28.80859375,-132.8125
1758510882.8588438,STAR,-18.06640625,-51.26953125,-29.78515625,-23.92578125,-37.109375
1758510882.86275,STAR,-43.9453125,-49.31640625,-47.36328125,-27.34375,-45.8984375
1758510882.8666563,STAR,-52.24609375,-29.296875,-60.05859375,-30.76171875,-32.2265625
1758510882.8705626,STAR,-25.390625,-14.16015625,-66.89453125,-19.04296875,655.76171875
1758510882.8744688,STAR,-17.08984375,-14.16015625,-68.359375,-16.11328125,699.21875
1758510882.878375,STAR,-41.50390625,-30.76171875,-49.31640625,-29.78515625,-190.4296875
1758510882.8822813,STAR,-55.17578125,-35.15625,-29.296875,-27.34375,-269.53125
1758510882.8861876,STAR,-33.203125,-48.33984375,-36.1328125,-16.11328125,-125.48828125
1758510882.8900938,STAR,-9.27734375,-43.45703125,-52.24609375,-14.16015625,-201.171875
1758510882.892125,RECT,-28.3203125,-19.53125,-50.78125,-20.01953125,-250.48828125
1758510882.8960311,RECT,-58.59375,-27.83203125,-44.921875,-25.390625,-177.734375
1758510882.8999374,RECT,-50.78125,-31.25,-48.828125,-25.390625,-115.72265625
1758510882.9038436,RECT,-27.83203125,-25.390625,-41.50390625,-20.5078125,-214.84375
1758510882.90775,RECT,-34.66796875,-23.4375,-36.1328125,-18.5546875,-229.4921875
1758510882.9116561,RECT,-51.7578125,-19.53125,-32.2265625,-16.11328125,221.6796875
1758510882.9155624,RECT,-48.828125,-26.3671875,-32.71484375,-16.6015625,320.80078125
1758510882.9194686,RECT,-23.92578125,-39.55078125,-34.1796875,-20.01953125,-56.15234375
1758510882.923375,RECT,-23.92578125,-44.921875,-38.0859375,-28.80859375,-66.40625
1758510882.9272811,RECT,-50.29296875,-45.8984375,-55.6640625,-28.80859375,269.04296875
1758510882.9311874,RECT,-56.15234375,-51.26953125,-66.40625,-22.94921875,628.90625
1758510882.9350936,RECT,-41.50390625,-50.29296875,-57.12890625,-28.3203125,88.37890625
1758510882.952125,STAR,-35.64453125,-48.828125,-39.55078125,-29.296875,-341.796875
1758510882.9560313,STAR,-63.96484375,-52.734375,-38.57421875,-40.0390625,-226.5625
1758510882.9599376,STAR,-92.28515625,-51.7578125,-57.6171875,-55.6640625,-286.62109375
1758510882.9638438,STAR,-74.21875,-52.24609375,-63.96484375,-60.05859375,-319.3359375
1758510882.96775,STAR,-47.36328125,-49.31640625,-45.41015625,-54.19921875,-179.19921875
1758510882.9716563,STAR,-47.8515625,-36.1328125,-43.9453125,-40.52734375,125.48828125
1758510882.9755626,STAR,-65.91796875,-41.50390625,-52.734375,-39.55078125,176.26953125
1758510882.9794688,STAR,-56.640625,-54.19921875,-46.38671875,-35.15625,-176.26953125
1758510882.983375,STAR,-35.15625,-50.78125,-54.6875,-22.4609375,-158.203125
1758510882.9872813,STAR,-44.921875,-48.828125,-63.4765625,-27.83203125,525.87890625
1758510882.9911876,STAR,-64.94140625,-44.921875,-63.96484375,-34.66796875,179.19921875
1758510882.9950938,STAR,-65.91796875,-51.7578125,-47.36328125,-30.2734375,-462.890625
1758510882.997125,RECT,-46.38671875,-50.29296875,-24.4140625,-31.73828125,-163.57421875
1758510883.0010312,RECT,-44.921875,-41.50390625,-31.73828125,-38.0859375,62.5
1758510883.0049374,RECT,-71.77734375,-45.41015625,-48.33984375,-52.24609375,-274.90234375
1758510883.0088437,RECT,-74.21875,-40.52734375,-49.8046875,-62.01171875,-421.38671875
1758510883.01275,RECT,-42.48046875,-43.9453125,-52.734375,-59.08203125,-212.40234375
1758510883.0166562,RECT,-28.3203125,-61.5234375,-57.6171875,-55.17578125,104.98046875
1758510883.0205624,RECT,-48.828125,-62.98828125,-45.8984375,-58.59375,12.6953125
1758510883.0244687,RECT,-56.640625,-56.640625,-41.015625,-56.640625,-197.75390625
1758510883.028375,RECT,-34.66796875,-45.41015625,-57.6171875,-47.8515625,190.4296875
1758510883.0322812,RECT,-14.16015625,-47.36328125,-66.89453125,-39.0625,778.80859375
1758510883.0361874,RECT,-25.390625,-61.03515625,-58.59375,-50.78125,203.61328125
1758510883.0400937,RECT,-58.59375,-63.96484375,-59.5703125,-68.359375,-257.8125
1758510883.042125,RECT,-52.24609375,-52.24609375,-80.56640625,-57.12890625,38.0859375
1758510883.0460312,RECT,-22.94921875,-41.9921875,-87.890625,-52.734375,-80.56640625
1758510883.0499375,RECT,-36.62109375,-61.03515625,-63.96484375,-59.08203125,-290.0390625
1758510883.0538437,RECT,-64.94140625,-67.3828125,-49.8046875,-56.15234375,-302.734375
1758510883.05775,RECT,-66.89453125,-58.59375,-55.17578125,-59.5703125,-243.1640625
1758510883.0616562,RECT,-35.15625,-59.5703125,-59.08203125,-57.12890625,-124.51171875
1758510883.0655625,RECT,-6.8359375,-53.7109375,-70.80078125,-40.0390625,-44.921875
1758510883.0694687,RECT,-18.5546875,-45.8984375,-104.98046875,-37.109375,-164.55078125
1758510883.073375,RECT,-42.48046875,-72.75390625,-98.14453125,-41.50390625,200.1953125
1758510883.0772812,RECT,-32.71484375,-90.33203125,-58.59375,-44.43359375,167.96875
1758510883.0811875,RECT,-18.5546875,-65.4296875,-51.7578125,-48.33984375,-303.7109375
1758510883.0850937,RECT,-38.57421875,-47.36328125,-63.4765625,-49.8046875,-159.1796875
1758510883.088125,RECT,-55.6640625,-39.0625,-42.48046875,-41.9921875,-160.64453125
1758510883.0920312,RECT,-46.38671875,-51.7578125,-31.25,-32.2265625,-281.25
1758510883.0959375,RECT,-27.83203125,-63.4765625,-63.4765625,-31.25,-101.07421875
1758510883.0998437,RECT,-36.62109375,-86.9140625,-82.51953125,-35.15625,165.52734375
1758510883.10375,RECT,-65.4296875,-114.2578125,-70.3125,-40.52734375,102.05078125
1758510883.1076562,RECT,-70.80078125,-97.65625,-53.22265625,-50.78125,-169.43359375
1758510883.1115625,RECT,-50.29296875,-75.68359375,-54.6875,-48.828125,-59.5703125
1758510883.1154687,RECT,-41.9921875,-73.73046875,-62.01171875,-39.55078125,342.7734375
1758510883.119375,RECT,-59.5703125,-75.1953125,-83.49609375,-47.36328125,278.80859375
1758510883.1232812,RECT,-69.3359375,-79.58984375,-99.12109375,-45.41015625,-245.1171875
1758510883.1271875,RECT,-52.734375,-93.26171875,-102.05078125,-40.52734375,-377.9296875
1758510883.1310937,RECT,-40.0390625,-97.16796875,-99.609375,-40.0390625,169.921875
1758510883.132125,RECT,-58.59375,-93.75,-94.7265625,-32.71484375,520.5078125
1758510883.1360312,RECT,-61.5234375,-90.8203125,-98.6328125,-30.76171875,-167.48046875
1758510883.1399374,RECT,-41.9921875,-100.5859375,-103.02734375,-37.109375,-343.75
1758510883.1438437,RECT,-37.109375,-107.91015625,-91.30859375,-47.36328125,-203.61328125
1758510883.14775,RECT,-55.6640625,-114.74609375,-96.19140625,-53.7109375,-185.05859375
1758510883.1516562,RECT,-97.16796875,-142.08984375,-148.92578125,-80.56640625,-173.828125
1758510883.1555624,RECT,-103.515625,-152.34375,-156.73828125,-102.05078125,-146.484375
1758510883.1594687,RECT,-76.66015625,-142.08984375,-132.8125,-91.30859375,470.21484375
1758510883.163375,RECT,-79.1015625,-135.7421875,-141.6015625,-83.0078125,522.94921875
1758510883.1672812,RECT,-104.98046875,-144.53125,-130.37109375,-86.9140625,-295.8984375
1758510883.1711874,RECT,-94.7265625,-143.06640625,-120.60546875,-72.75390625,-282.2265625
1758510883.1750937,RECT,-60.546875,-133.7890625,-126.46484375,-63.4765625,-97.16796875
1758510883.177125,RECT,-49.8046875,-126.953125,-125.9765625,-64.453125,-199.21875
1758510883.1810312,RECT,-65.4296875,-104.98046875,-129.39453125,-54.6875,-260.7421875
1758510883.1849375,RECT,-74.21875,-100.5859375,-120.1171875,-54.19921875,-194.3359375
1758510883.1888437,RECT,-56.15234375,-104.4921875,-113.28125,-54.19921875,-91.30859375
1758510883.19275,RECT,-43.45703125,-102.5390625,-110.3515625,-55.17578125,-147.94921875
1758510883.1966562,RECT,-63.96484375,-96.19140625,-121.09375,-62.98828125,-106.4453125
1758510883.2005625,RECT,-73.2421875,-99.609375,-132.8125,-58.59375,343.75
1758510883.2044687,RECT,-56.15234375,-111.81640625,-117.1875,-50.78125,632.32421875
1758510883.208375,RECT,-34.1796875,-103.02734375,-110.83984375,-57.6171875,181.15234375
1758510883.2122812,RECT,-42.96875,-94.7265625,-132.32421875,-58.59375,-218.75
1758510883.2161875,RECT,-68.84765625,-100.09765625,-134.765625,-43.9453125,93.26171875
1758510883.2200937,RECT,-62.01171875,-100.09765625,-105.95703125,-42.48046875,335.9375
1758510883.222125,STAR,-42.48046875,-93.26171875,-84.9609375,-54.19921875,-201.171875
1758510883.2260313,STAR,-47.36328125,-88.37890625,-82.51953125,-50.29296875,-313.96484375
1758510883.2299376,STAR,-75.68359375,-83.49609375,-78.125,-56.640625,-232.421875
1758510883.2338438,STAR,-76.66015625,-64.453125,-89.35546875,-55.6640625,-193.359375
1758510883.23775,STAR,-42.48046875,-52.24609375,-103.02734375,-42.96875,-200.68359375
1758510883.2416563,STAR,-35.15625,-57.6171875,-101.5625,-36.62109375,75.68359375
1758510883.2455626,STAR,-57.12890625,-54.6875,-93.75,-28.80859375,591.30859375
1758510883.2494688,STAR,-60.546875,-60.05859375,-99.609375,-25.390625,190.91796875
1758510883.253375,STAR,-34.1796875,-69.82421875,-106.93359375,-25.87890625,-398.4375
1758510883.2572813,STAR,-12.20703125,-61.5234375,-82.51953125,-16.6015625,8.7890625
1758510883.2611876,STAR,-28.3203125,-60.546875,-63.96484375,-6.34765625,200.68359375
1758510883.2650938,STAR,-54.19921875,-56.640625,-41.50390625,-16.11328125,-236.328125
1758510883.267125,RECT,-30.2734375,-58.59375,-26.85546875,-17.578125,-361.81640625
1758510883.2710311,RECT,-10.7421875,-50.29296875,-54.6875,-13.671875,-26.85546875
1758510883.2749374,RECT,-45.41015625,-43.45703125,-78.125,-31.25,160.64453125
1758510883.2788436,RECT,-76.171875,-52.734375,-84.47265625,-47.36328125,-212.40234375
1758510883.28275,RECT,-58.10546875,-45.41015625,-85.9375,-31.25,-327.63671875
1758510883.2866561,RECT,-30.2734375,-44.43359375,-106.93359375,-14.6484375,289.0625
1758510883.2905624,RECT,-27.34375,-56.640625,-118.1640625,-11.71875,458.49609375
1758510883.2944686,RECT,-38.0859375,-60.546875,-104.98046875,-15.13671875,-64.94140625
1758510883.298375,RECT,-29.78515625,-52.734375,-92.7734375,-11.23046875,-261.71875
1758510883.3022811,RECT,3.90625,-39.55078125,-69.3359375,5.859375,101.5625
1758510883.3061874,RECT,0.0,-47.36328125,-61.03515625,2.9296875,501.46484375
1758510883.3100936,RECT,-37.59765625,-59.08203125,-62.01171875,-13.671875,-57.12890625
1758510883.327125,RECT,-42.48046875,-49.31640625,-57.12890625,-19.53125,-291.015625
1758510883.3310313,RECT,-22.94921875,-52.24609375,-74.70703125,-20.99609375,-59.5703125
1758510883.3349376,RECT,-5.37109375,-55.17578125,-88.37890625,-17.08984375,-78.125
1758510883.3388438,RECT,-15.13671875,-50.29296875,-84.9609375,-18.06640625,-303.7109375
1758510883.34275,RECT,-33.69140625,-43.9453125,-97.16796875,-21.97265625,-284.1796875
1758510883.3466563,RECT,-19.53125,-28.80859375,-106.93359375,-14.16015625,36.62109375
1758510883.3505626,RECT,6.34765625,-29.78515625,-89.84375,-7.8125,231.4453125
1758510883.3544688,RECT,-3.90625,-41.015625,-74.70703125,-7.8125,-86.9140625
1758510883.358375,RECT,-32.2265625,-51.26953125,-86.9140625,-7.32421875,-277.83203125
1758510883.3622813,RECT,-28.80859375,-63.4765625,-97.16796875,-5.859375,128.41796875
1758510883.3661876,RECT,-1.46484375,-64.453125,-99.12109375,2.44140625,45.41015625
1758510883.3700938,RECT,-6.34765625,-69.82421875,-84.9609375,-9.27734375,-291.015625
1758510883.373125,RECT,-45.41015625,-79.58984375,-56.640625,-25.390625,-193.84765625
1758510883.3770313,RECT,-55.17578125,-69.82421875,-52.24609375,-22.94921875,-180.17578125
1758510883.3809376,RECT,-28.3203125,-68.84765625,-65.4296875,-19.04296875,-181.640625
1758510883.3848438,RECT,-18.5546875,-71.2890625,-81.54296875,-21.484375,-221.6796875
1758510883.38875,RECT,-34.1796875,-49.31640625,-86.9140625,-16.6015625,-4.39453125
1758510883.3926563,RECT,-52.24609375,-25.87890625,-80.078125,-15.625,313.96484375
1758510883.3965626,RECT,-43.45703125,-28.3203125,-61.03515625,-27.83203125,36.62109375
1758510883.4004688,RECT,-23.4375,-38.0859375,-60.05859375,-28.80859375,-94.7265625
1758510883.404375,RECT,-37.109375,-45.41015625,-81.54296875,-23.4375,229.4921875
1758510883.4082813,RECT,-51.26953125,-53.7109375,-79.58984375,-15.13671875,671.875
1758510883.4121876,RECT,-25.87890625,-65.4296875,-48.828125,-16.6015625,143.06640625
1758510883.4160938,RECT,2.44140625,-54.19921875,-35.64453125,-14.6484375,-339.35546875
1758510883.417125,RECT,4.8828125,-43.45703125,-41.015625,-2.44140625,-171.38671875
1758510883.4210312,RECT,-23.4375,-43.9453125,-50.29296875,-11.71875,-225.09765625
1758510883.4249375,RECT,-34.66796875,-36.62109375,-51.26953125,-17.578125,-313.4765625
1758510883.4288437,RECT,-11.23046875,-41.015625,-70.3125,-17.08984375,-249.51171875
1758510883.43275,RECT,-9.27734375,-42.96875,-96.19140625,-13.18359375,9.27734375
1758510883.4366562,RECT,-24.90234375,-43.45703125,-92.28515625,-5.859375,10.25390625
1758510883.4405625,RECT,-32.71484375,-60.546875,-73.2421875,-3.41796875,-58.59375
1758510883.4444687,RECT,-10.25390625,-63.4765625,-67.87109375,-9.765625,65.4296875
1758510883.448375,RECT,10.25390625,-51.7578125,-57.12890625,-1.953125,496.58203125
1758510883.4522812,RECT,-15.625,-43.9453125,-39.55078125,-6.8359375,499.0234375
1758510883.4561875,RECT,-48.33984375,-48.33984375,-45.41015625,-27.83203125,-257.32421875
1758510883.4600937,RECT,-32.71484375,-50.78125,-59.5703125,-24.4140625,-267.08984375
1758510883.462125,RECT,-8.30078125,-50.78125,-68.84765625,-22.4609375,-95.703125
1758510883.4660313,RECT,-9.765625,-48.33984375,-68.359375,-12.6953125,-247.0703125
1758510883.4699376,RECT,-12.6953125,-17.578125,-64.94140625,15.625,-323.73046875
1758510883.4738438,RECT,4.8828125,-10.25390625,-78.61328125,33.203125,-199.21875
1758510883.47775,RECT,32.2265625,-35.15625,-84.47265625,30.2734375,-96.6796875
1758510883.4816563,RECT,24.90234375,-31.25,-56.640625,29.78515625,-78.125
1758510883.4855626,RECT,-10.25390625,-21.97265625,-32.71484375,22.94921875,-41.9921875
1758510883.4894688,RECT,-20.5078125,-25.390625,-2.9296875,19.04296875,185.05859375
1758510883.493375,RECT,0.48828125,-27.34375,2.44140625,26.85546875,874.0234375
1758510883.4972813,RECT,5.859375,-11.71875,-23.92578125,26.3671875,580.078125
1758510883.5011876,RECT,-16.11328125,3.41796875,-33.69140625,20.01953125,-319.3359375
1758510883.5050938,RECT,-37.59765625,0.9765625,-35.15625,6.34765625,-283.69140625
1758510883.507125,STAR,-20.5078125,-4.39453125,-56.640625,2.44140625,-211.9140625
1758510883.5110312,STAR,6.8359375,-1.953125,-73.2421875,11.71875,-302.734375
1758510883.5149374,STAR,-6.8359375,3.41796875,-55.6640625,4.8828125,-263.671875
1758510883.5188437,STAR,-36.62109375,-9.765625,-43.45703125,-7.32421875,-239.74609375
1758510883.52275,STAR,-19.04296875,-18.5546875,-32.71484375,-0.48828125,-250.9765625
1758510883.5266562,STAR,6.8359375,-15.13671875,-39.0625,2.9296875,-137.20703125
1758510883.5305624,STAR,-13.18359375,-22.4609375,-48.828125,-3.41796875,26.85546875
1758510883.5344687,STAR,-40.0390625,-24.4140625,-46.38671875,-2.44140625,403.3203125
1758510883.538375,STAR,-32.2265625,-18.5546875,-54.19921875,-0.9765625,155.2734375
1758510883.5422812,STAR,-3.90625,-14.6484375,-62.5,3.90625,-316.89453125
1758510883.5461874,STAR,-0.9765625,-11.71875,-69.3359375,-2.9296875,-52.734375
1758510883.5500937,STAR,-28.80859375,-9.27734375,-67.3828125,-5.859375,140.13671875
1758510883.552125,RECT,-30.76171875,-5.37109375,-58.59375,-0.48828125,-225.09765625
1758510883.5560312,RECT,3.90625,-9.765625,-60.05859375,2.44140625,-368.65234375
1758510883.5599375,RECT,14.16015625,-21.97265625,-68.359375,-2.44140625,-156.73828125
1758510883.5638437,RECT,-16.11328125,-12.20703125,-67.87109375,-14.6484375,-165.52734375
1758510883.56775,RECT,-37.109375,-10.25390625,-71.2890625,-17.08984375,-302.734375
1758510883.5716562,RECT,-18.5546875,-17.578125,-89.35546875,-16.6015625,-254.39453125
1758510883.5755625,RECT,0.48828125,-13.18359375,-93.26171875,-9.765625,414.0625
1758510883.5794687,RECT,-21.484375,-17.08984375,-75.68359375,-5.37109375,844.23828125
1758510883.583375,RECT,-51.26953125,-23.92578125,-77.1484375,-16.11328125,113.28125
1758510883.5872812,RECT,-34.1796875,-25.87890625,-80.56640625,-9.27734375,-349.609375
1758510883.5911875,RECT,-6.34765625,-25.87890625,-94.7265625,-0.48828125,-47.8515625
1758510883.5950937,RECT,-16.6015625,-28.80859375,-99.12109375,-4.39453125,-62.5
1758510883.598125,RECT,-49.31640625,-42.48046875,-62.01171875,-15.625,-209.47265625
1758510883.6020312,RECT,-54.6875,-53.7109375,-53.22265625,-20.01953125,-90.33203125
1758510883.6059375,RECT,-19.53125,-39.0625,-65.4296875,-9.765625,14.6484375
1758510883.6098437,RECT,-14.6484375,-38.57421875,-69.82421875,-4.8828125,-13.18359375
1758510883.61375,RECT,-53.7109375,-53.22265625,-70.3125,-8.30078125,-303.22265625
1758510883.6176562,RECT,-56.640625,-47.36328125,-71.77734375,-2.44140625,-128.90625
1758510883.6215625,RECT,-28.3203125,-47.8515625,-93.26171875,-2.44140625,375.48828125
1758510883.6254687,RECT,-24.4140625,-56.15234375,-120.1171875,-10.7421875,183.59375
1758510883.629375,RECT,-46.875,-49.8046875,-107.421875,-11.23046875,-297.36328125
1758510883.6332812,RECT,-63.96484375,-37.59765625,-65.4296875,-18.06640625,-207.51953125
1758510883.6371875,RECT,-52.734375,-41.015625,-48.828125,-31.25,-0.9765625
1758510883.6410937,RECT,-40.52734375,-56.15234375,-64.94140625,-31.25,-166.9921875
1758510883.642125,STAR,-50.29296875,-47.36328125,-87.890625,-38.0859375,-297.36328125
1758510883.6460311,STAR,-62.01171875,-39.55078125,-83.49609375,-40.52734375,-173.33984375
1758510883.6499374,STAR,-54.6875,-36.1328125,-68.84765625,-38.0859375,-77.1484375
1758510883.6538436,STAR,-33.69140625,-34.1796875,-62.01171875,-39.0625,47.36328125
1758510883.65775,STAR,-30.76171875,-35.64453125,-54.6875,-32.2265625,-62.01171875
1758510883.6616561,STAR,-55.17578125,-25.390625,-58.59375,-27.34375,244.140625
1758510883.6655624,STAR,-60.05859375,-26.85546875,-62.01171875,-27.83203125,818.359375
1758510883.6694686,STAR,-33.203125,-23.92578125,-56.640625,-19.53125,368.1640625
1758510883.673375,STAR,-11.71875,-25.87890625,-66.40625,-8.30078125,-39.0625
1758510883.6772811,STAR,-33.69140625,-25.390625,-80.56640625,-11.23046875,70.80078125
1758510883.6811874,STAR,-59.08203125,-14.6484375,-78.125,-30.2734375,-3.41796875
1758510883.6850936,STAR,-46.38671875,-17.08984375,-65.4296875,-45.41015625,-320.3125
1758510883.702125,RECT,-33.69140625,-25.87890625,-61.5234375,-45.41015625,-308.59375
1758510883.7060313,RECT,-55.17578125,-34.1796875,-66.40625,-48.828125,-59.08203125
1758510883.7099376,RECT,-77.1484375,-31.25,-70.3125,-58.10546875,-74.21875
1758510883.7138438,RECT,-62.01171875,-27.34375,-95.703125,-55.6640625,-330.078125
1758510883.71775,RECT,-39.0625,-26.85546875,-91.796875,-53.22265625,-170.41015625
1758510883.7216563,RECT,-44.921875,-28.80859375,-60.546875,-49.31640625,142.578125
1758510883.7255626,RECT,-65.91796875,-38.0859375,-62.01171875,-48.33984375,71.77734375
1758510883.7294688,RECT,-68.84765625,-24.90234375,-78.125,-50.29296875,-66.40625
1758510883.733375,RECT,-38.57421875,-22.94921875,-73.73046875,-40.0390625,-117.1875
1758510883.7372813,RECT,-33.203125,-25.87890625,-68.84765625,-29.296875,395.5078125
1758510883.7411876,RECT,-68.84765625,-15.625,-87.40234375,-41.015625,312.98828125
1758510883.7450938,RECT,-76.171875,-21.484375,-87.40234375,-46.875,-425.78125
1758510883.747125,RECT,-44.921875,-16.6015625,-55.6640625,-32.2265625,-216.30859375
1758510883.7510312,RECT,-36.1328125,-17.578125,-48.828125,-38.0859375,-84.9609375
1758510883.7549374,RECT,-46.38671875,-20.01953125,-58.10546875,-33.69140625,-297.8515625
1758510883.7588437,RECT,-45.8984375,-4.39453125,-49.8046875,-19.53125,-353.515625
1758510883.76275,RECT,-40.0390625,5.859375,-61.03515625,-24.4140625,-171.875
1758510883.7666562,RECT,-31.73828125,-4.8828125,-88.8671875,-25.87890625,51.7578125
1758510883.7705624,RECT,-40.52734375,-15.625,-86.42578125,-21.484375,4.8828125
1758510883.7744687,RECT,-61.03515625,-12.6953125,-83.984375,-26.85546875,-213.8671875
1758510883.778375,RECT,-52.24609375,-21.484375,-100.5859375,-34.66796875,177.24609375
1758510883.7822812,RECT,-26.3671875,-26.85546875,-99.12109375,-29.296875,999.51171875
1758510883.7861874,RECT,-33.203125,-21.97265625,-78.125,-32.71484375,572.265625
1758510883.7900937,RECT,-53.7109375,-7.8125,-87.890625,-44.43359375,-322.265625
1758510883.792125,RECT,-51.7578125,-7.32421875,-81.0546875,-40.0390625,-316.40625
1758510883.7960312,RECT,-21.97265625,-20.99609375,-41.015625,-27.83203125,-203.61328125
1758510883.7999375,RECT,-14.6484375,-14.6484375,-41.015625,-32.71484375,-261.23046875
1758510883.8038437,RECT,-40.52734375,-10.25390625,-57.12890625,-39.0625,-272.4609375
1758510883.80775,RECT,-47.8515625,-13.671875,-90.8203125,-38.0859375,-174.8046875
1758510883.8116562,RECT,-10.25390625,-6.34765625,-141.11328125,-23.92578125,-48.828125
1758510883.8155625,RECT,1.46484375,1.953125,-158.69140625,-18.06640625,-23.92578125
1758510883.8194687,RECT,-48.828125,-10.25390625,-122.55859375,-43.9453125,-119.140625
1758510883.823375,RECT,-70.80078125,-29.296875,-90.33203125,-45.41015625,251.953125
1758510883.8272812,RECT,-44.921875,-28.3203125,-81.0546875,-39.0625,162.109375
1758510883.8311875,RECT,-30.2734375,-20.01953125,-88.8671875,-46.38671875,-251.953125
1758510883.8350937,RECT,-46.875,-22.94921875,-102.5390625,-39.0625,-31.25
1758510883.837125,RECT,-62.01171875,-11.71875,-120.1171875,-33.203125,12.20703125
1758510883.8410313,RECT,-55.17578125,0.0,-136.71875,-43.45703125,-271.97265625
1758510883.8449376,RECT,-40.52734375,-8.30078125,-127.9296875,-49.31640625,-336.42578125
1758510883.8488438,RECT,-45.8984375,-10.25390625,-134.27734375,-50.29296875,-135.7421875
1758510883.85275,RECT,-72.75390625,-5.859375,-149.90234375,-53.22265625,-103.515625
1758510883.8566563,RECT,-72.265625,-18.06640625,-125.9765625,-55.17578125,-148.4375
1758510883.8605626,RECT,-50.78125,-29.78515625,-107.91015625,-62.98828125,-114.2578125
1758510883.8644688,RECT,-50.29296875,-17.08984375,-104.4921875,-60.05859375,393.5546875
1758510883.868375,RECT,-77.1484375,-9.27734375,-90.8203125,-61.5234375,614.74609375
1758510883.8722813,RECT,-88.8671875,-20.01953125,-92.28515625,-72.265625,5.37109375
1758510883.8761876,RECT,-59.08203125,-18.06640625,-103.515625,-58.10546875,-223.14453125
1758510883.8800938,RECT,-39.0625,-9.27734375,-115.234375,-40.0390625,67.87109375
1758510883.883125,RECT,-45.41015625,1.46484375,-114.74609375,-31.73828125,208.49609375
1758510883.8870313,RECT,-57.12890625,10.25390625,-99.12109375,-34.66796875,-117.67578125
1758510883.8909376,RECT,-54.19921875,1.46484375,-99.609375,-41.50390625,-247.0703125
1758510883.8948438,RECT,-36.62109375,-5.859375,-92.7734375,-35.64453125,-2.44140625
1758510883.89875,RECT,-40.52734375,-7.8125,-68.359375,-31.25,6.34765625
1758510883.9026563,RECT,-64.94140625,-10.25390625,-62.98828125,-51.7578125,-220.21484375
1758510883.9065626,RECT,-61.03515625,-11.71875,-82.51953125,-51.26953125,-5.859375
1758510883.9104688,RECT,-26.85546875,-23.92578125,-107.421875,-35.64453125,198.73046875
1758510883.914375,RECT,-27.83203125,-36.1328125,-97.16796875,-35.15625,-59.5703125
1758510883.9182813,RECT,-62.01171875,-9.765625,-68.359375,-36.62109375,-317.87109375
1758510883.9221876,RECT,-66.40625,-5.859375,-56.640625,-36.1328125,-233.3984375
1758510883.9260938,RECT,-34.66796875,-17.578125,-72.75390625,-22.94921875,198.73046875
1758510883.927125,STAR,-13.18359375,1.46484375,-90.33203125,-19.53125,36.62109375
1758510883.9310312,STAR,-25.87890625,16.6015625,-76.171875,-15.625,-302.734375
1758510883.9349375,STAR,-33.203125,19.04296875,-71.77734375,-14.16015625,-207.03125
1758510883.9388437,STAR,-8.7890625,16.6015625,-82.51953125,-5.859375,46.38671875
1758510883.94275,STAR,5.859375,1.46484375,-85.9375,1.46484375,25.390625
1758510883.9466562,STAR,-20.99609375,-23.4375,-89.35546875,-17.578125,-41.015625
1758510883.9505625,STAR,-51.26953125,-26.85546875,-97.16796875,-24.4140625,299.8046875
1758510883.9544687,STAR,-36.1328125,-3.41796875,-90.33203125,-4.8828125,930.6640625
1758510883.958375,STAR,-5.37109375,-0.48828125,-72.75390625,1.46484375,622.55859375
1758510883.9622812,STAR,-8.7890625,-5.859375,-60.05859375,-6.8359375,-243.65234375
1758510883.9661875,STAR,-40.52734375,6.34765625,-59.5703125,-11.23046875,-292.96875
1758510883.9700937,STAR,-43.9453125,-2.44140625,-65.4296875,-21.97265625,-254.39453125
1758510883.972125,RECT,-13.671875,-4.8828125,-52.734375,-15.13671875,-332.51953125
1758510883.9760313,RECT,-2.44140625,15.13671875,-28.80859375,-2.9296875,-258.30078125
1758510883.9799376,RECT,-34.1796875,-3.90625,-36.62109375,-18.06640625,-182.6171875
1758510883.9838438,RECT,-46.875,-22.94921875,-56.640625,-29.78515625,-269.04296875
1758510883.98775,RECT,-14.16015625,-21.484375,-54.19921875,-22.4609375,-230.95703125
1758510883.9916563,RECT,-7.8125,-28.3203125,-46.38671875,-16.11328125,-48.828125
1758510883.9955626,RECT,-35.15625,-15.13671875,-57.6171875,-15.625,435.546875
1758510883.9994688,RECT,-53.22265625,-10.25390625,-63.96484375,-23.92578125,508.30078125
1758510884.003375,RECT,-44.921875,-16.11328125,-52.734375,-37.109375,-148.92578125
1758510884.0072813,RECT,-31.25,-13.18359375,-60.05859375,-34.66796875,-201.171875
1758510884.0111876,RECT,-57.6171875,-7.8125,-70.80078125,-37.59765625,129.39453125
1758510884.0150938,RECT,-75.1953125,-11.71875,-80.078125,-39.55078125,-130.859375
1758510884.017125,STAR,-45.8984375,-34.66796875,-66.89453125,-32.2265625,-366.2109375
1758510884.0210311,STAR,-27.83203125,-37.109375,-37.109375,-41.9921875,-148.4375
1758510884.0249374,STAR,-36.1328125,-14.6484375,-31.73828125,-45.41015625,-95.21484375
1758510884.0288436,STAR,-52.734375,-6.8359375,-57.12890625,-39.0625,-311.5234375
1758510884.03275,STAR,-41.50390625,-8.7890625,-78.125,-22.4609375,-342.28515625
1758510884.0366561,STAR,-6.8359375,-10.25390625,-76.171875,-8.7890625,171.875
1758510884.0405624,STAR,-7.32421875,-16.11328125,-41.50390625,-15.625,291.015625
1758510884.0444686,STAR,-34.1796875,-19.04296875,-11.71875,-26.85546875,-88.37890625
1758510884.048375,STAR,-39.55078125,-11.71875,-22.4609375,-22.4609375,-105.46875
1758510884.0522811,STAR,-15.625,-8.30078125,-22.4609375,-12.6953125,320.3125
1758510884.0561874,STAR,8.30078125,-11.71875,-38.0859375,7.8125,818.359375
1758510884.0600936,STAR,-5.37109375,-19.53125,-34.1796875,7.32421875,200.68359375
1758510884.077125,RECT,-33.69140625,-26.3671875,3.41796875,-17.578125,-386.71875
1758510884.0810313,RECT,-14.6484375,-12.6953125,18.5546875,-11.71875,-233.88671875
1758510884.0849376,RECT,-0.48828125,5.37109375,10.7421875,-10.25390625,-184.5703125
1758510884.0888438,RECT,-15.625,11.23046875,-13.671875,-8.30078125,-192.3828125
1758510884.09275,RECT,-30.2734375,4.39453125,-21.484375,0.0,-177.734375
1758510884.0966563,RECT,-16.11328125,-1.953125,-36.1328125,-4.39453125,49.8046875
1758510884.1005626,RECT,27.34375,4.39453125,-64.453125,13.18359375,158.203125
1758510884.1044688,RECT,30.2734375,16.11328125,-51.26953125,30.2734375,-106.93359375
1758510884.108375,RECT,0.48828125,26.3671875,-21.484375,30.2734375,-295.8984375
1758510884.1122813,RECT,10.7421875,18.5546875,-8.7890625,38.57421875,77.1484375
1758510884.1161876,RECT,36.1328125,-3.90625,-0.48828125,34.66796875,112.3046875
1758510884.1200938,RECT,38.57421875,-8.30078125,-16.6015625,24.4140625,-82.03125
1758510884.122125,RECT,16.11328125,-9.765625,-76.66015625,21.97265625,-14.6484375
1758510884.1260312,RECT,0.0,-13.671875,-81.54296875,13.18359375,41.015625
1758510884.1299374,RECT,21.97265625,-7.32421875,-30.2734375,10.25390625,-190.4296875
1758510884.1338437,RECT,34.66796875,-2.9296875,-18.5546875,10.7421875,-240.72265625
1758510884.13775,RECT,0.9765625,-3.90625,-14.6484375,-10.25390625,-84.47265625
1758510884.1416562,RECT,-22.94921875,2.9296875,-25.390625,-7.32421875,39.0625
1758510884.1455624,RECT,-3.41796875,4.39453125,-45.41015625,-1.46484375,37.59765625
1758510884.1494687,RECT,9.765625,-12.20703125,-20.5078125,-18.5546875,3.41796875
1758510884.153375,RECT,-4.39453125,-24.4140625,-11.23046875,-14.6484375,269.04296875
1758510884.1572812,RECT,-33.69140625,-25.87890625,-15.625,-10.25390625,667.48046875
1758510884.1611874,RECT,-35.64453125,-22.94921875,-6.34765625,-28.3203125,184.08203125
1758510884.1650937,RECT,-4.8828125,-6.8359375,-13.18359375,-33.203125,-305.6640625
1758510884.168125,STAR,-1.46484375,7.8125,-30.2734375,-20.5078125,-204.58984375
1758510884.1720312,STAR,-29.296875,12.6953125,-38.57421875,-20.5078125,-91.796875
1758510884.1759374,STAR,-35.15625,10.7421875,-35.64453125,-27.34375,-158.203125
1758510884.1798437,STAR,-6.34765625,17.578125,-48.33984375,-16.11328125,-322.75390625
1758510884.18375,STAR,6.8359375,21.97265625,-60.546875,2.44140625,-52.734375
1758510884.1876562,STAR,-29.78515625,4.8828125,-32.2265625,-9.765625,40.52734375
1758510884.1915624,STAR,-57.6171875,-16.11328125,5.859375,-32.2265625,-151.3671875
1758510884.1954687,STAR,-33.69140625,-15.13671875,6.34765625,-32.2265625,-215.8203125
1758510884.199375,STAR,-10.7421875,0.0,-16.6015625,-19.53125,327.1484375
1758510884.2032812,STAR,-28.80859375,-6.34765625,-24.90234375,-20.99609375,255.859375
1758510884.2071874,STAR,-54.19921875,-21.484375,-19.04296875,-33.69140625,-377.44140625
1758510884.2110937,STAR,-30.76171875,-19.53125,6.8359375,-23.92578125,-221.6796875
1758510884.212125,RECT,-3.90625,-21.484375,21.484375,-20.5078125,-93.26171875
1758510884.2160313,RECT,-12.20703125,-26.85546875,0.9765625,-23.92578125,-243.65234375
1758510884.2199376,RECT,-29.296875,-36.62109375,-19.04296875,-17.08984375,-332.03125
1758510884.2238438,RECT,-30.76171875,-36.1328125,-17.08984375,-14.6484375,-199.70703125
1758510884.22775,RECT,-19.04296875,-27.83203125,13.671875,-17.08984375,-29.78515625
1758510884.2316563,RECT,-26.3671875,-26.3671875,59.08203125,-19.53125,21.484375
1758510884.2355626,RECT,-54.6875,-24.90234375,71.2890625,-29.296875,-62.5
1758510884.2394688,RECT,-55.17578125,-20.5078125,59.08203125,-25.87890625,210.9375
1758510884.243375,RECT,-21.484375,-20.5078125,43.45703125,-14.16015625,961.9140625
1758510884.2472813,RECT,-11.71875,-28.3203125,14.16015625,-13.18359375,613.76953125
1758510884.2511876,RECT,-34.1796875,-27.34375,36.1328125,-17.578125,-227.5390625
1758510884.2550938,RECT,-41.9921875,-18.06640625,96.6796875,-20.99609375,-340.8203125
1758510884.257125,RECT,-14.6484375,-25.390625,95.21484375,-15.625,-302.734375
1758510884.2610312,RECT,0.48828125,-33.203125,76.66015625,-18.5546875,-321.2890625
1758510884.2649374,RECT,-19.53125,-16.6015625,103.02734375,-27.83203125,-274.4140625
1758510884.2688437,RECT,-49.8046875,0.0,139.6484375,-37.59765625,-234.86328125
1758510884.27275,RECT,-39.0625,4.39453125,130.37109375,-36.62109375,-250.0
1758510884.2766562,RECT,-2.9296875,-5.859375,117.67578125,-24.4140625,-75.1953125
1758510884.2805624,RECT,-6.8359375,-16.6015625,131.8359375,-30.76171875,-38.0859375
1758510884.2844687,RECT,-37.59765625,-23.4375,137.6953125,-30.2734375,555.6640625
1758510884.288375,RECT,-40.0390625,-27.83203125,113.76953125,-22.4609375,592.7734375
1758510884.2922812,RECT,-12.20703125,-16.6015625,87.890625,-24.90234375,-195.80078125
1758510884.2961874,RECT,-9.27734375,-10.25390625,78.61328125,-17.578125,-136.71875
1758510884.3000937,RECT,-31.25,-9.765625,79.1015625,-16.11328125,-109.86328125
1758510884.302125,RECT,-36.1328125,-6.34765625,65.91796875,-23.92578125,-315.4296875
1758510884.3060312,RECT,-10.7421875,-9.765625,56.15234375,-20.01953125,-327.1484375
1758510884.3099375,RECT,-3.41796875,-28.80859375,62.98828125,-19.53125,-136.23046875
1758510884.3138437,RECT,-30.76171875,-15.13671875,80.078125,-27.34375,-164.0625
1758510884.31775,RECT,-48.33984375,1.46484375,95.703125,-32.2265625,-297.8515625
1758510884.3216562,RECT,-31.25,-7.32421875,80.078125,-27.83203125,-206.0546875
1758510884.3255625,RECT,-6.34765625,-12.6953125,48.33984375,-16.6015625,254.8828125
1758510884.3294687,RECT,-29.78515625,-10.25390625,23.4375,-15.625,706.54296875
1758510884.333375,RECT,-64.453125,-10.7421875,12.6953125,-27.83203125,153.3203125
1758510884.3372812,RECT,-44.43359375,-16.6015625,23.4375,-31.25,-265.13671875
1758510884.3411875,RECT,-19.04296875,-34.1796875,12.6953125,-35.64453125,157.2265625
1758510884.3450937,RECT,-31.25,-25.87890625,-7.32421875,-41.50390625,291.9921875
1758510884.347125,RECT,-48.828125,17.578125,-10.25390625,-38.0859375,-300.29296875
1758510884.3510313,RECT,-35.64453125,23.92578125,-35.15625,-39.0625,-400.390625
1758510884.3549376,RECT,-6.34765625,22.94921875,-56.640625,-37.109375,-193.84765625
1758510884.3588438,RECT,-10.7421875,23.4375,-26.85546875,-37.59765625,-138.18359375
1758510884.36275,RECT,-43.45703125,0.48828125,6.8359375,-55.17578125,-236.328125
1758510884.3666563,RECT,-58.10546875,2.9296875,13.18359375,-60.05859375,-53.7109375
1758510884.3705626,RECT,-38.0859375,16.6015625,3.90625,-55.6640625,225.5859375
1758510884.3744688,RECT,-18.5546875,21.97265625,-3.41796875,-50.78125,51.7578125
1758510884.378375,RECT,-37.59765625,20.01953125,-17.578125,-52.24609375,-262.6953125
1758510884.3822813,RECT,-62.98828125,5.37109375,-6.8359375,-62.01171875,-240.72265625
1758510884.3861876,RECT,-54.19921875,6.8359375,12.20703125,-62.01171875,182.6171875
1758510884.3900938,RECT,-33.203125,4.39453125,14.16015625,-60.546875,285.64453125
1758510884.393125,STAR,-42.96875,-1.953125,2.9296875,-55.17578125,-86.9140625
1758510884.3970313,STAR,-58.10546875,10.7421875,-2.44140625,-41.015625,-130.859375
1758510884.4009376,STAR,-45.8984375,8.30078125,8.30078125,-40.0390625,42.96875
1758510884.4048438,STAR,-29.296875,4.39453125,22.4609375,-50.78125,-174.8046875
1758510884.40875,STAR,-33.203125,10.7421875,41.9921875,-57.12890625,-316.89453125
1758510884.4126563,STAR,-45.41015625,12.20703125,47.36328125,-43.9453125,120.1171875
1758510884.4165626,STAR,-33.69140625,14.16015625,39.0625,-26.3671875,494.140625
1758510884.4204688,STAR,0.0,12.20703125,50.78125,-23.92578125,70.80078125
1758510884.424375,STAR,20.5078125,12.6953125,64.453125,-13.671875,-198.2421875
1758510884.4282813,STAR,3.90625,-9.27734375,54.6875,-4.39453125,155.2734375
1758510884.4321876,STAR,-2.9296875,-29.296875,25.87890625,1.953125,375.0
1758510884.4360938,STAR,20.01953125,-10.7421875,7.8125,3.41796875,-207.51953125
1758510884.452125,RECT,21.97265625,-0.48828125,25.87890625,-4.39453125,-319.3359375
1758510884.4560313,RECT,-9.27734375,-6.34765625,47.36328125,-5.859375,-187.5
1758510884.4599376,RECT,-40.0390625,-10.7421875,49.8046875,-6.8359375,-100.5859375
1758510884.4638438,RECT,-30.2734375,-17.578125,42.96875,-10.7421875,-213.37890625
1758510884.46775,RECT,-3.90625,-23.4375,32.71484375,-5.859375,-236.81640625
1758510884.4716563,RECT,-23.4375,-21.484375,19.53125,-4.39453125,378.41796875
1758510884.4755626,RECT,-55.6640625,-15.625,28.3203125,-16.6015625,392.08984375
1758510884.4794688,RECT,-48.33984375,-27.83203125,18.5546875,-21.97265625,-223.14453125
1758510884.483375,RECT,-13.671875,-26.3671875,8.7890625,-14.6484375,-229.4921875
1758510884.4872813,RECT,-13.18359375,-21.484375,28.80859375,-14.6484375,115.234375
1758510884.4911876,RECT,-49.31640625,-30.76171875,39.55078125,-24.4140625,-82.03125
1758510884.4950938,RECT,-52.24609375,-27.34375,20.5078125,-21.484375,-362.3046875
1758510884.497125,RECT,-27.83203125,-26.85546875,0.9765625,-18.5546875,-152.83203125
1758510884.5010312,RECT,-21.484375,-26.3671875,29.78515625,-29.78515625,-58.10546875
1758510884.5049374,RECT,-44.921875,-23.4375,39.0625,-29.296875,-233.3984375
1758510884.5088437,RECT,-62.01171875,-15.625,14.6484375,-30.76171875,-292.48046875
1758510884.51275,RECT,-37.109375,-17.08984375,16.11328125,-22.94921875,58.59375
1758510884.5166562,RECT,-10.7421875,-24.90234375,19.53125,-16.6015625,281.73828125
1758510884.5205624,RECT,-25.390625,-23.4375,21.484375,-30.76171875,-5.859375
1758510884.5244687,RECT,-50.29296875,-17.08984375,26.85546875,-24.4140625,-146.97265625
1758510884.528375,RECT,-41.50390625,-16.6015625,20.5078125,-17.08984375,100.5859375
1758510884.5322812,RECT,-13.18359375,-21.97265625,13.18359375,-18.5546875,73.73046875
1758510884.5361874,RECT,-16.11328125,-31.25,7.8125,-22.4609375,-195.3125
1758510884.5400937,RECT,-46.38671875,-39.55078125,8.30078125,-28.3203125,-334.47265625
1758510884.542125,STAR,-47.36328125,-38.57421875,5.37109375,-22.94921875,71.77734375
1758510884.5460312,STAR,-13.18359375,-30.76171875,16.11328125,-14.16015625,595.703125
1758510884.5499375,STAR,-7.32421875,-21.97265625,30.76171875,-21.97265625,-30.2734375
1758510884.5538437,STAR,-30.76171875,-13.671875,33.203125,-19.53125,-328.61328125
1758510884.55775,STAR,-33.203125,-7.8125,23.4375,-15.13671875,-188.96484375
1758510884.5616562,STAR,-9.765625,-15.13671875,15.13671875,-12.6953125,-37.59765625
1758510884.5655625,STAR,11.23046875,-10.25390625,7.8125,3.90625,129.8828125
1758510884.5694687,STAR,7.32421875,0.9765625,6.34765625,5.859375,49.31640625
1758510884.573375,STAR,-17.578125,-12.6953125,-1.46484375,-2.44140625,480.95703125
1758510884.5772812,STAR,-15.625,-24.90234375,-17.578125,-9.27734375,495.60546875
1758510884.5811875,STAR,0.48828125,-31.73828125,-14.6484375,-23.4375,-235.83984375
1758510884.5850937,STAR,-22.4609375,-43.9453125,0.9765625,-33.203125,-244.140625
1758510884.587125,RECT,-48.828125,-36.1328125,6.8359375,-34.1796875,-184.5703125
1758510884.5910313,RECT,-31.25,-20.5078125,-11.71875,-25.390625,-344.23828125
1758510884.5949376,RECT,-5.859375,-18.06640625,-6.8359375,-21.484375,-333.0078125
1758510884.5988438,RECT,-12.6953125,-23.92578125,7.32421875,-19.53125,-144.53125
1758510884.60275,RECT,-27.83203125,-23.4375,11.71875,-15.625,-81.54296875
1758510884.6066563,RECT,-23.92578125,-8.30078125,9.765625,-10.7421875,-117.1875
1758510884.6105626,RECT,-4.39453125,-9.765625,-5.37109375,-0.9765625,-83.49609375
1758510884.6144688,RECT,6.34765625,-20.01953125,-11.71875,5.37109375,323.2421875
1758510884.618375,RECT,-9.765625,-13.671875,-23.92578125,11.23046875,901.85546875
1758510884.6222813,RECT,-32.2265625,-20.01953125,-28.3203125,-1.953125,458.0078125
1758510884.6261876,RECT,-14.16015625,-21.97265625,-12.20703125,-10.25390625,-169.43359375
1758510884.6300938,RECT,12.6953125,-15.625,-6.8359375,-0.48828125,-39.55078125
1758510884.632125,STAR,-7.8125,-25.390625,-29.296875,-3.41796875,-35.15625
1758510884.6360312,STAR,-33.203125,-38.0859375,-23.4375,-13.671875,-372.55859375
1758510884.6399374,STAR,-16.6015625,-38.0859375,0.0,-18.5546875,-336.42578125
1758510884.6438437,STAR,3.90625,-24.4140625,-11.71875,-15.625,-170.8984375
1758510884.64775,STAR,0.0,-15.13671875,-16.6015625,-1.46484375,-112.3046875
1758510884.6516562,STAR,-22.4609375,-23.4375,-0.9765625,-1.46484375,-106.93359375
1758510884.6555624,STAR,-31.25,-27.83203125,2.44140625,-5.859375,-88.8671875
1758510884.6594687,STAR,-9.27734375,-27.34375,-9.765625,5.859375,419.921875
1758510884.663375,STAR,-14.6484375,-28.3203125,-22.94921875,-7.8125,337.890625
1758510884.6672812,STAR,-33.203125,-27.34375,-13.18359375,-19.04296875,-300.29296875
1758510884.6711874,STAR,-32.2265625,-35.15625,-4.8828125,-18.06640625,-268.5546875
1758510884.6750937,STAR,-7.8125,-41.9921875,-15.625,-17.08984375,-92.28515625
